# Filter name : Subaru/HSC.r
# Description : HSC r (full transmission)
# Photometric system : ------
# FilterType : photon
# Band name : ------
# Observatory : Subaru
# Instrument : HSC
# Comments : ------
# 
5.00190e+03 5.80000e-03
5.00610e+03 5.90000e-03
5.01030e+03 5.90000e-03
5.01440e+03 5.70000e-03
5.01860e+03 5.70000e-03
5.02280e+03 6.10000e-03
5.02700e+03 5.90000e-03
5.03110e+03 5.70000e-03
5.03530e+03 5.90000e-03
5.03950e+03 6.00000e-03
5.04370e+03 6.10000e-03
5.04790e+03 6.00000e-03
5.05210e+03 5.90000e-03
5.05620e+03 5.90000e-03
5.06040e+03 5.70000e-03
5.06460e+03 6.10000e-03
5.06880e+03 6.10000e-03
5.07300e+03 5.80000e-03
5.07720e+03 6.00000e-03
5.08140e+03 6.00000e-03
5.08550e+03 6.00000e-03
5.08970e+03 5.90000e-03
5.09390e+03 6.10000e-03
5.09810e+03 5.80000e-03
5.10230e+03 6.20000e-03
5.10650e+03 6.00000e-03
5.11070e+03 6.20000e-03
5.11490e+03 6.20000e-03
5.11900e+03 6.30000e-03
5.12320e+03 6.20000e-03
5.12740e+03 6.00000e-03
5.13160e+03 6.10000e-03
5.13580e+03 6.30000e-03
5.14000e+03 6.40000e-03
5.14420e+03 6.30000e-03
5.14840e+03 6.30000e-03
5.15260e+03 6.20000e-03
5.15680e+03 6.20000e-03
5.16100e+03 6.10000e-03
5.16520e+03 6.50000e-03
5.16940e+03 6.40000e-03
5.17360e+03 6.70000e-03
5.17770e+03 6.50000e-03
5.18190e+03 6.40000e-03
5.18610e+03 6.40000e-03
5.19030e+03 6.20000e-03
5.19450e+03 6.30000e-03
5.19870e+03 6.50000e-03
5.20290e+03 6.30000e-03
5.20710e+03 6.70000e-03
5.21130e+03 6.50000e-03
5.21550e+03 6.30000e-03
5.21970e+03 6.50000e-03
5.22390e+03 6.60000e-03
5.22810e+03 6.60000e-03
5.23230e+03 6.60000e-03
5.23650e+03 6.70000e-03
5.24070e+03 6.70000e-03
5.24490e+03 6.80000e-03
5.24910e+03 6.90000e-03
5.25330e+03 6.70000e-03
5.25760e+03 6.90000e-03
5.26180e+03 6.70000e-03
5.26600e+03 6.80000e-03
5.27020e+03 7.00000e-03
5.27440e+03 7.20000e-03
5.27860e+03 7.30000e-03
5.28280e+03 7.30000e-03
5.28700e+03 7.50000e-03
5.29120e+03 7.60000e-03
5.29540e+03 7.50000e-03
5.29960e+03 8.00000e-03
5.30380e+03 8.00000e-03
5.30800e+03 8.20000e-03
5.31220e+03 8.40000e-03
5.31650e+03 8.60000e-03
5.32070e+03 9.40000e-03
5.32490e+03 9.60000e-03
5.32910e+03 1.00000e-02
5.33330e+03 1.03000e-02
5.33750e+03 1.11000e-02
5.34170e+03 1.15000e-02
5.34590e+03 1.19000e-02
5.35020e+03 1.28000e-02
5.35440e+03 1.36000e-02
5.35860e+03 1.42000e-02
5.36280e+03 1.52000e-02
5.36700e+03 1.60000e-02
5.37120e+03 1.72000e-02
5.37540e+03 1.85000e-02
5.37970e+03 2.02000e-02
5.38390e+03 2.20000e-02
5.38810e+03 2.42000e-02
5.39230e+03 2.72000e-02
5.39650e+03 3.05000e-02
5.40080e+03 3.45000e-02
5.40500e+03 3.92000e-02
5.40920e+03 4.52000e-02
5.41340e+03 5.18000e-02
5.41760e+03 5.96000e-02
5.42190e+03 6.88000e-02
5.42610e+03 7.87000e-02
5.43030e+03 9.02000e-02
5.43450e+03 1.03100e-01
5.43870e+03 1.16800e-01
5.44300e+03 1.32700e-01
5.44720e+03 1.49700e-01
5.45140e+03 1.68800e-01
5.45560e+03 1.89800e-01
5.45990e+03 2.12900e-01
5.46410e+03 2.38000e-01
5.46830e+03 2.65500e-01
5.47250e+03 2.95600e-01
5.47680e+03 3.27500e-01
5.48100e+03 3.60400e-01
5.48520e+03 3.95000e-01
5.48940e+03 4.29000e-01
5.49370e+03 4.62500e-01
5.49790e+03 4.94500e-01
5.50210e+03 5.24700e-01
5.50640e+03 5.51100e-01
5.51060e+03 5.74000e-01
5.51480e+03 5.93200e-01
5.51910e+03 6.08700e-01
5.52330e+03 6.20600e-01
5.52750e+03 6.29600e-01
5.53170e+03 6.36100e-01
5.53600e+03 6.40400e-01
5.54020e+03 6.44200e-01
5.54440e+03 6.47700e-01
5.54870e+03 6.50000e-01
5.55290e+03 6.51900e-01
5.55710e+03 6.53300e-01
5.56140e+03 6.54400e-01
5.56560e+03 6.56000e-01
5.56990e+03 6.56300e-01
5.57410e+03 6.56000e-01
5.57830e+03 6.57900e-01
5.58260e+03 6.58400e-01
5.58680e+03 6.59200e-01
5.59100e+03 6.59500e-01
5.59530e+03 6.60000e-01
5.59950e+03 6.60100e-01
5.60380e+03 6.60600e-01
5.60800e+03 6.61400e-01
5.61220e+03 6.62300e-01
5.61650e+03 6.63100e-01
5.62070e+03 6.63300e-01
5.62500e+03 6.64400e-01
5.62920e+03 6.64700e-01
5.63340e+03 6.64800e-01
5.63770e+03 6.65800e-01
5.64190e+03 6.65900e-01
5.64620e+03 6.66000e-01
5.65040e+03 6.66600e-01
5.65470e+03 6.66800e-01
5.65890e+03 6.66700e-01
5.66310e+03 6.67000e-01
5.66740e+03 6.67500e-01
5.67160e+03 6.67800e-01
5.67590e+03 6.67400e-01
5.68010e+03 6.67700e-01
5.68440e+03 6.67600e-01
5.68860e+03 6.67900e-01
5.69290e+03 6.68200e-01
5.69710e+03 6.68200e-01
5.70140e+03 6.69300e-01
5.70560e+03 6.68900e-01
5.70990e+03 6.69800e-01
5.71410e+03 6.70200e-01
5.71840e+03 6.70800e-01
5.72260e+03 6.71500e-01
5.72690e+03 6.72000e-01
5.73110e+03 6.72700e-01
5.73540e+03 6.73500e-01
5.73960e+03 6.74500e-01
5.74390e+03 6.75000e-01
5.74810e+03 6.75500e-01
5.75240e+03 6.75800e-01
5.75660e+03 6.76500e-01
5.76090e+03 6.76500e-01
5.76520e+03 6.77200e-01
5.76940e+03 6.77500e-01
5.77370e+03 6.77300e-01
5.77790e+03 6.77900e-01
5.78220e+03 6.77600e-01
5.78640e+03 6.78100e-01
5.79070e+03 6.78400e-01
5.79490e+03 6.78900e-01
5.79920e+03 6.78600e-01
5.80350e+03 6.79300e-01
5.80770e+03 6.79200e-01
5.81200e+03 6.79200e-01
5.81620e+03 6.80200e-01
5.82050e+03 6.80300e-01
5.82480e+03 6.80900e-01
5.82900e+03 6.81600e-01
5.83330e+03 6.81800e-01
5.83750e+03 6.82000e-01
5.84180e+03 6.82600e-01
5.84610e+03 6.82600e-01
5.85030e+03 6.83000e-01
5.85460e+03 6.82900e-01
5.85890e+03 6.82800e-01
5.86310e+03 6.82100e-01
5.86740e+03 6.82900e-01
5.87170e+03 6.83200e-01
5.87590e+03 6.82600e-01
5.88020e+03 6.83100e-01
5.88450e+03 6.83500e-01
5.88870e+03 6.83800e-01
5.89300e+03 6.83300e-01
5.89730e+03 6.83900e-01
5.90150e+03 6.84300e-01
5.90580e+03 6.84300e-01
5.91010e+03 6.85000e-01
5.91430e+03 6.85500e-01
5.91860e+03 6.85700e-01
5.92290e+03 6.85900e-01
5.92710e+03 6.86400e-01
5.93140e+03 6.86500e-01
5.93570e+03 6.86800e-01
5.94000e+03 6.87100e-01
5.94420e+03 6.87500e-01
5.94850e+03 6.86900e-01
5.95280e+03 6.87300e-01
5.95700e+03 6.87500e-01
5.96130e+03 6.87400e-01
5.96560e+03 6.87500e-01
5.96990e+03 6.87800e-01
5.97410e+03 6.88100e-01
5.97840e+03 6.88100e-01
5.98270e+03 6.88400e-01
5.98700e+03 6.89100e-01
5.99130e+03 6.88900e-01
5.99550e+03 6.89300e-01
5.99980e+03 6.89800e-01
6.00410e+03 6.90600e-01
6.00840e+03 6.91600e-01
6.01260e+03 6.91600e-01
6.01690e+03 6.92600e-01
6.02120e+03 6.92900e-01
6.02550e+03 6.93200e-01
6.02980e+03 6.93100e-01
6.03400e+03 6.93300e-01
6.03830e+03 6.93000e-01
6.04260e+03 6.94000e-01
6.04690e+03 6.93200e-01
6.05120e+03 6.93300e-01
6.05540e+03 6.94000e-01
6.05970e+03 6.93500e-01
6.06400e+03 6.93900e-01
6.06830e+03 6.94100e-01
6.07260e+03 6.94800e-01
6.07690e+03 6.95100e-01
6.08120e+03 6.95500e-01
6.08540e+03 6.96500e-01
6.08970e+03 6.97200e-01
6.09400e+03 6.98200e-01
6.09830e+03 6.98700e-01
6.10260e+03 6.99200e-01
6.10690e+03 6.99800e-01
6.11120e+03 7.00100e-01
6.11540e+03 7.00600e-01
6.11970e+03 7.00500e-01
6.12400e+03 7.00400e-01
6.12830e+03 7.01000e-01
6.13260e+03 7.00800e-01
6.13690e+03 7.00900e-01
6.14120e+03 7.01000e-01
6.14550e+03 7.00800e-01
6.14980e+03 7.01300e-01
6.15410e+03 7.01600e-01
6.15840e+03 7.01700e-01
6.16260e+03 7.02000e-01
6.16690e+03 7.02500e-01
6.17120e+03 7.03200e-01
6.17550e+03 7.03900e-01
6.17980e+03 7.05000e-01
6.18410e+03 7.05000e-01
6.18840e+03 7.05500e-01
6.19270e+03 7.05800e-01
6.19700e+03 7.06300e-01
6.20130e+03 7.06000e-01
6.20560e+03 7.06900e-01
6.20990e+03 7.06400e-01
6.21420e+03 7.05700e-01
6.21850e+03 7.06200e-01
6.22280e+03 7.05900e-01
6.22710e+03 7.05500e-01
6.23140e+03 7.05600e-01
6.23570e+03 7.05400e-01
6.24000e+03 7.06200e-01
6.24430e+03 7.06300e-01
6.24860e+03 7.05400e-01
6.25290e+03 7.06000e-01
6.25720e+03 7.05700e-01
6.26150e+03 7.05700e-01
6.26580e+03 7.06200e-01
6.27010e+03 7.05300e-01
6.27440e+03 7.05500e-01
6.27870e+03 7.04900e-01
6.28300e+03 7.05300e-01
6.28730e+03 7.04900e-01
6.29160e+03 7.04300e-01
6.29590e+03 7.04600e-01
6.30020e+03 7.04100e-01
6.30450e+03 7.04300e-01
6.30880e+03 7.04600e-01
6.31310e+03 7.04600e-01
6.31740e+03 7.05600e-01
6.32170e+03 7.05000e-01
6.32610e+03 7.05100e-01
6.33040e+03 7.05400e-01
6.33470e+03 7.05600e-01
6.33900e+03 7.05400e-01
6.34330e+03 7.05600e-01
6.34760e+03 7.05600e-01
6.35190e+03 7.05700e-01
6.35620e+03 7.04400e-01
6.36050e+03 7.04900e-01
6.36480e+03 7.04200e-01
6.36920e+03 7.04100e-01
6.37350e+03 7.04500e-01
6.37780e+03 7.03900e-01
6.38210e+03 7.04100e-01
6.38640e+03 7.03900e-01
6.39070e+03 7.04200e-01
6.39500e+03 7.04900e-01
6.39930e+03 7.04700e-01
6.40370e+03 7.04500e-01
6.40800e+03 7.05000e-01
6.41230e+03 7.05700e-01
6.41660e+03 7.05800e-01
6.42090e+03 7.05700e-01
6.42520e+03 7.05600e-01
6.42960e+03 7.05700e-01
6.43390e+03 7.05100e-01
6.43820e+03 7.05400e-01
6.44250e+03 7.04800e-01
6.44680e+03 7.04700e-01
6.45110e+03 7.04800e-01
6.45550e+03 7.04600e-01
6.45980e+03 7.04500e-01
6.46410e+03 7.04500e-01
6.46840e+03 7.04300e-01
6.47270e+03 7.04100e-01
6.47710e+03 7.04500e-01
6.48140e+03 7.05000e-01
6.48570e+03 7.04500e-01
6.49000e+03 7.05100e-01
6.49440e+03 7.05500e-01
6.49870e+03 7.05700e-01
6.50300e+03 7.05600e-01
6.50730e+03 7.05200e-01
6.51160e+03 7.05500e-01
6.51600e+03 7.05300e-01
6.52030e+03 7.04900e-01
6.52460e+03 7.05500e-01
6.52890e+03 7.04700e-01
6.53330e+03 7.04700e-01
6.53760e+03 7.04300e-01
6.54190e+03 7.04700e-01
6.54630e+03 7.04000e-01
6.55060e+03 7.03700e-01
6.55490e+03 7.03600e-01
6.55920e+03 7.02900e-01
6.56360e+03 7.03200e-01
6.56790e+03 7.02500e-01
6.57220e+03 7.02000e-01
6.57660e+03 7.01700e-01
6.58090e+03 7.01400e-01
6.58520e+03 7.01000e-01
6.58950e+03 7.00600e-01
6.59390e+03 7.00100e-01
6.59820e+03 7.00600e-01
6.60250e+03 7.00100e-01
6.60690e+03 7.00400e-01
6.61120e+03 6.99800e-01
6.61550e+03 7.00100e-01
6.61990e+03 6.99100e-01
6.62420e+03 6.99600e-01
6.62850e+03 6.99500e-01
6.63290e+03 6.99300e-01
6.63720e+03 6.99500e-01
6.64150e+03 6.99400e-01
6.64590e+03 6.98800e-01
6.65020e+03 6.98400e-01
6.65460e+03 6.98500e-01
6.65890e+03 6.97600e-01
6.66320e+03 6.97800e-01
6.66760e+03 6.97200e-01
6.67190e+03 6.96100e-01
6.67620e+03 6.95700e-01
6.68060e+03 6.95700e-01
6.68490e+03 6.94800e-01
6.68930e+03 6.95100e-01
6.69360e+03 6.94900e-01
6.69790e+03 6.94400e-01
6.70230e+03 6.94100e-01
6.70660e+03 6.94800e-01
6.71100e+03 6.94300e-01
6.71530e+03 6.94700e-01
6.71960e+03 6.94800e-01
6.72400e+03 6.94400e-01
6.72830e+03 6.94600e-01
6.73270e+03 6.94300e-01
6.73700e+03 6.94600e-01
6.74140e+03 6.93800e-01
6.74570e+03 6.94000e-01
6.75000e+03 6.93300e-01
6.75440e+03 6.93200e-01
6.75870e+03 6.93100e-01
6.76310e+03 6.93000e-01
6.76740e+03 6.92500e-01
6.77180e+03 6.92500e-01
6.77610e+03 6.92900e-01
6.78050e+03 6.92400e-01
6.78480e+03 6.92400e-01
6.78920e+03 6.92500e-01
6.79350e+03 6.93000e-01
6.79790e+03 6.92200e-01
6.80220e+03 6.92400e-01
6.80660e+03 6.92300e-01
6.81090e+03 6.91900e-01
6.81530e+03 6.91300e-01
6.81960e+03 6.91100e-01
6.82400e+03 6.87800e-01
6.82830e+03 6.84100e-01
6.83270e+03 6.80600e-01
6.83700e+03 6.78000e-01
6.84140e+03 6.74400e-01
6.84570e+03 6.71100e-01
6.85010e+03 6.67500e-01
6.85440e+03 6.64200e-01
6.85880e+03 6.60700e-01
6.86310e+03 6.57500e-01
6.86750e+03 6.54000e-01
6.87180e+03 6.50900e-01
6.87620e+03 6.46900e-01
6.88060e+03 6.44000e-01
6.88490e+03 6.44700e-01
6.88930e+03 6.46000e-01
6.89360e+03 6.46100e-01
6.89800e+03 6.45800e-01
6.90230e+03 6.44500e-01
6.90670e+03 6.42900e-01
6.91110e+03 6.39400e-01
6.91540e+03 6.34500e-01
6.91980e+03 6.28400e-01
6.92410e+03 6.20600e-01
6.92850e+03 6.10700e-01
6.93290e+03 5.98700e-01
6.93720e+03 5.85200e-01
6.94160e+03 5.69400e-01
6.94590e+03 5.51500e-01
6.95030e+03 5.32100e-01
6.95470e+03 5.10300e-01
6.95900e+03 4.88600e-01
6.96340e+03 4.64900e-01
6.96770e+03 4.41000e-01
6.97210e+03 4.16500e-01
6.97650e+03 3.91700e-01
6.98080e+03 3.66500e-01
6.98520e+03 3.40800e-01
6.98960e+03 3.15900e-01
6.99390e+03 2.90800e-01
6.99830e+03 2.66500e-01
7.00270e+03 2.42600e-01
7.00700e+03 2.19200e-01
7.01140e+03 1.96300e-01
7.01580e+03 1.74900e-01
7.02010e+03 1.54400e-01
7.02450e+03 1.35200e-01
7.02890e+03 1.17900e-01
7.03320e+03 1.02200e-01
7.03760e+03 8.84000e-02
7.04200e+03 7.67000e-02
7.04630e+03 6.67000e-02
7.05070e+03 5.83000e-02
7.05510e+03 5.14000e-02
7.05940e+03 4.57000e-02
7.06380e+03 4.06000e-02
7.06820e+03 3.66000e-02
7.07260e+03 3.32000e-02
7.07690e+03 3.02000e-02
7.08130e+03 2.79000e-02
7.08570e+03 2.59000e-02
7.09000e+03 2.39000e-02
7.09440e+03 2.25000e-02
7.09880e+03 2.10000e-02
7.10320e+03 1.97000e-02
7.10750e+03 1.86000e-02
7.11190e+03 1.76000e-02
7.11630e+03 1.66000e-02
7.12070e+03 1.57000e-02
7.12500e+03 1.49000e-02
7.12940e+03 1.44000e-02
7.13380e+03 1.34000e-02
7.13820e+03 1.27000e-02
7.14250e+03 1.21000e-02
7.14690e+03 1.13000e-02
7.15130e+03 1.07000e-02
7.15570e+03 1.01000e-02
7.16010e+03 9.60000e-03
7.16440e+03 9.00000e-03
7.16880e+03 8.40000e-03
7.17320e+03 8.20000e-03
7.17760e+03 7.70000e-03
7.18200e+03 7.50000e-03
7.18630e+03 7.30000e-03
7.19070e+03 7.00000e-03
7.19510e+03 6.90000e-03
7.19950e+03 6.70000e-03
7.20390e+03 6.60000e-03
7.20820e+03 6.50000e-03
7.21260e+03 6.40000e-03
7.21700e+03 6.30000e-03
7.22140e+03 6.20000e-03
7.22580e+03 6.10000e-03
7.23020e+03 5.90000e-03
7.23450e+03 5.80000e-03
7.23890e+03 5.80000e-03
7.24330e+03 5.70000e-03
7.24770e+03 5.70000e-03
7.25210e+03 5.60000e-03
7.25650e+03 5.60000e-03
7.26080e+03 5.50000e-03
7.26520e+03 5.40000e-03
7.26960e+03 5.30000e-03
7.27400e+03 5.30000e-03
7.27840e+03 5.20000e-03
7.28280e+03 5.20000e-03
7.28720e+03 5.00000e-03
7.29160e+03 5.00000e-03
7.29600e+03 5.00000e-03
7.30030e+03 4.80000e-03
7.30470e+03 4.90000e-03
7.30910e+03 4.80000e-03
7.31350e+03 4.80000e-03
7.31790e+03 4.80000e-03
7.32230e+03 4.90000e-03
7.32670e+03 4.70000e-03
7.33110e+03 4.80000e-03
7.33550e+03 4.80000e-03
7.33990e+03 4.70000e-03
7.34420e+03 4.70000e-03
7.34860e+03 4.70000e-03
7.35300e+03 4.70000e-03
7.35740e+03 4.60000e-03
7.36180e+03 4.60000e-03
7.36620e+03 4.50000e-03
7.37060e+03 4.60000e-03
7.37500e+03 4.50000e-03
7.37940e+03 4.40000e-03
7.38380e+03 4.50000e-03
7.38820e+03 4.40000e-03
7.39260e+03 4.30000e-03
7.39700e+03 4.40000e-03
7.40140e+03 4.40000e-03
7.40580e+03 4.30000e-03
7.41020e+03 4.40000e-03
7.41460e+03 4.30000e-03
7.41900e+03 4.20000e-03
7.42340e+03 4.30000e-03
7.42780e+03 4.20000e-03
7.43220e+03 4.30000e-03
7.43660e+03 4.20000e-03
7.44100e+03 4.30000e-03
7.44540e+03 4.10000e-03
7.44980e+03 4.10000e-03
7.45420e+03 4.10000e-03
7.45860e+03 4.10000e-03
7.46300e+03 4.10000e-03
7.46740e+03 4.10000e-03
7.47180e+03 4.10000e-03
7.47620e+03 4.10000e-03
7.48060e+03 4.00000e-03
7.48500e+03 4.10000e-03
7.48940e+03 4.00000e-03
7.49380e+03 4.10000e-03
7.49820e+03 3.90000e-03
