# Filter name : Subaru/Suprime.IB464
# Description : Suprime IB464 filter  (full transmission)
# Photometric system : Suprime
# FilterType : photon
# Band name : ------
# Observatory : Subaru
# Instrument : Suprime
# Comments : ------
# 
4.45600e+03 0.00000e+00
4.45650e+03 1.17332e-03
4.45700e+03 1.25266e-03
4.45750e+03 1.28382e-03
4.45800e+03 1.40945e-03
4.45850e+03 1.42631e-03
4.45900e+03 1.50480e-03
4.45950e+03 1.64601e-03
4.46000e+03 1.67837e-03
4.46050e+03 1.69429e-03
4.46100e+03 1.78941e-03
4.46150e+03 1.82081e-03
4.46200e+03 1.96233e-03
4.46250e+03 2.02571e-03
4.46300e+03 2.15193e-03
4.46350e+03 2.27925e-03
4.46400e+03 2.42108e-03
4.46450e+03 2.51558e-03
4.46500e+03 2.68953e-03
4.46550e+03 2.84810e-03
4.46600e+03 2.94281e-03
4.46650e+03 3.06957e-03
4.46700e+03 3.26040e-03
4.46750e+03 3.35532e-03
4.46800e+03 3.52982e-03
4.46850e+03 3.75194e-03
4.46900e+03 3.97316e-03
4.46950e+03 4.19555e-03
4.47000e+03 4.46459e-03
4.47050e+03 4.71829e-03
4.47100e+03 4.95661e-03
4.47150e+03 5.22716e-03
4.47200e+03 5.43369e-03
4.47250e+03 5.67244e-03
4.47300e+03 5.92687e-03
4.47350e+03 6.27677e-03
4.47400e+03 6.64243e-03
4.47450e+03 7.05496e-03
4.47500e+03 7.34225e-03
4.47550e+03 7.70854e-03
4.47600e+03 8.13836e-03
4.47650e+03 8.53626e-03
4.47700e+03 8.88766e-03
4.47750e+03 9.30263e-03
4.47800e+03 9.74902e-03
4.47850e+03 1.02279e-02
4.47900e+03 1.07174e-02
4.47950e+03 1.12925e-02
4.48000e+03 1.19512e-02
4.48050e+03 1.26206e-02
4.48100e+03 1.33113e-02
4.48150e+03 1.40232e-02
4.48200e+03 1.46313e-02
4.48250e+03 1.53753e-02
4.48300e+03 1.61406e-02
4.48350e+03 1.70000e-02
4.48400e+03 1.79643e-02
4.48450e+03 1.88874e-02
4.48500e+03 1.99572e-02
4.48550e+03 2.10693e-02
4.48600e+03 2.21195e-02
4.48650e+03 2.34103e-02
4.48700e+03 2.46916e-02
4.48750e+03 2.59735e-02
4.48800e+03 2.72354e-02
4.48850e+03 2.85398e-02
4.48900e+03 2.99496e-02
4.48950e+03 3.14230e-02
4.49000e+03 3.31482e-02
4.49050e+03 3.48852e-02
4.49100e+03 3.68433e-02
4.49150e+03 3.87713e-02
4.49200e+03 4.06483e-02
4.49250e+03 4.28828e-02
4.49300e+03 4.49825e-02
4.49350e+03 4.71047e-02
4.49400e+03 4.95218e-02
4.49450e+03 5.18775e-02
4.49500e+03 5.46124e-02
4.49550e+03 5.73382e-02
4.49600e+03 6.03387e-02
4.49650e+03 6.34772e-02
4.49700e+03 6.66486e-02
4.49750e+03 7.03049e-02
4.49800e+03 7.37525e-02
4.49850e+03 7.73274e-02
4.49900e+03 8.09245e-02
4.49950e+03 8.49118e-02
4.50000e+03 8.92157e-02
4.50050e+03 9.35100e-02
4.50100e+03 9.79523e-02
4.50150e+03 1.02869e-01
4.50200e+03 1.07661e-01
4.50250e+03 1.12737e-01
4.50300e+03 1.17814e-01
4.50350e+03 1.23210e-01
4.50400e+03 1.28710e-01
4.50450e+03 1.34528e-01
4.50500e+03 1.40453e-01
4.50550e+03 1.46167e-01
4.50600e+03 1.52516e-01
4.50650e+03 1.59078e-01
4.50700e+03 1.65958e-01
4.50750e+03 1.72946e-01
4.50800e+03 1.79724e-01
4.50850e+03 1.86506e-01
4.50900e+03 1.93923e-01
4.50950e+03 2.01448e-01
4.51000e+03 2.09295e-01
4.51050e+03 2.17250e-01
4.51100e+03 2.25101e-01
4.51150e+03 2.33167e-01
4.51200e+03 2.41341e-01
4.51250e+03 2.49728e-01
4.51300e+03 2.58752e-01
4.51350e+03 2.67886e-01
4.51400e+03 2.77022e-01
4.51450e+03 2.86478e-01
4.51500e+03 2.95303e-01
4.51550e+03 3.04659e-01
4.51600e+03 3.14547e-01
4.51650e+03 3.24333e-01
4.51700e+03 3.34016e-01
4.51750e+03 3.44126e-01
4.51800e+03 3.54028e-01
4.51850e+03 3.63932e-01
4.51900e+03 3.74156e-01
4.51950e+03 3.84915e-01
4.52000e+03 3.95782e-01
4.52050e+03 4.06336e-01
4.52100e+03 4.16999e-01
4.52150e+03 4.27559e-01
4.52200e+03 4.37910e-01
4.52250e+03 4.48583e-01
4.52300e+03 4.59897e-01
4.52350e+03 4.70577e-01
4.52400e+03 4.81366e-01
4.52450e+03 4.92160e-01
4.52500e+03 5.03168e-01
4.52550e+03 5.13756e-01
4.52600e+03 5.24666e-01
4.52650e+03 5.36004e-01
4.52700e+03 5.46814e-01
4.52750e+03 5.56885e-01
4.52800e+03 5.67066e-01
4.52850e+03 5.77142e-01
4.52900e+03 5.87010e-01
4.52950e+03 5.96774e-01
4.53000e+03 6.07498e-01
4.53050e+03 6.17269e-01
4.53100e+03 6.26937e-01
4.53150e+03 6.36820e-01
4.53200e+03 6.45536e-01
4.53250e+03 6.55106e-01
4.53300e+03 6.64254e-01
4.53350e+03 6.73191e-01
4.53400e+03 6.82025e-01
4.53450e+03 6.90117e-01
4.53500e+03 6.98956e-01
4.53550e+03 7.07585e-01
4.53600e+03 7.16005e-01
4.53650e+03 7.23574e-01
4.53700e+03 7.31785e-01
4.53750e+03 7.39359e-01
4.53800e+03 7.46723e-01
4.53850e+03 7.54409e-01
4.53900e+03 7.61137e-01
4.53950e+03 7.67549e-01
4.54000e+03 7.74921e-01
4.54050e+03 7.81551e-01
4.54100e+03 7.87754e-01
4.54150e+03 7.94280e-01
4.54200e+03 8.00382e-01
4.54250e+03 8.05631e-01
4.54300e+03 8.11202e-01
4.54350e+03 8.16456e-01
4.54400e+03 8.21710e-01
4.54450e+03 8.27500e-01
4.54500e+03 8.32331e-01
4.54550e+03 8.37162e-01
4.54600e+03 8.41462e-01
4.54650e+03 8.45228e-01
4.54700e+03 8.50065e-01
4.54750e+03 8.54262e-01
4.54800e+03 8.58033e-01
4.54850e+03 8.61698e-01
4.54900e+03 8.65364e-01
4.54950e+03 8.68497e-01
4.55000e+03 8.71203e-01
4.55050e+03 8.75301e-01
4.55100e+03 8.78009e-01
4.55150e+03 8.80933e-01
4.55200e+03 8.83750e-01
4.55250e+03 8.86461e-01
4.55300e+03 8.88638e-01
4.55350e+03 8.91351e-01
4.55400e+03 8.94172e-01
4.55450e+03 8.96886e-01
4.55500e+03 8.98531e-01
4.55550e+03 9.01140e-01
4.55600e+03 9.03214e-01
4.55650e+03 9.05182e-01
4.55700e+03 9.07042e-01
4.55750e+03 9.08689e-01
4.55800e+03 9.10659e-01
4.55850e+03 9.12414e-01
4.55900e+03 9.13955e-01
4.55950e+03 9.15389e-01
4.56000e+03 9.16500e-01
4.56050e+03 9.18043e-01
4.56100e+03 9.19477e-01
4.56150e+03 9.20483e-01
4.56200e+03 9.20630e-01
4.56250e+03 9.21206e-01
4.56300e+03 9.21783e-01
4.56350e+03 9.22252e-01
4.56400e+03 9.22721e-01
4.56450e+03 9.23405e-01
4.56500e+03 9.24304e-01
4.56550e+03 9.25204e-01
4.56600e+03 9.25029e-01
4.56650e+03 9.25390e-01
4.56700e+03 9.26291e-01
4.56750e+03 9.27622e-01
4.56800e+03 9.28630e-01
4.56850e+03 9.29207e-01
4.56900e+03 9.29464e-01
4.56950e+03 9.30042e-01
4.57000e+03 9.30836e-01
4.57050e+03 9.31523e-01
4.57100e+03 9.33287e-01
4.57150e+03 9.33974e-01
4.57200e+03 9.35524e-01
4.57250e+03 9.36319e-01
4.57300e+03 9.36900e-01
4.57350e+03 9.37696e-01
4.57400e+03 9.39787e-01
4.57450e+03 9.41015e-01
4.57500e+03 9.42351e-01
4.57550e+03 9.42717e-01
4.57600e+03 9.43514e-01
4.57650e+03 9.44852e-01
4.57700e+03 9.46405e-01
4.57750e+03 9.47851e-01
4.57800e+03 9.49945e-01
4.57850e+03 9.51500e-01
4.57900e+03 9.51759e-01
4.57950e+03 9.53099e-01
4.58000e+03 9.54007e-01
4.58050e+03 9.55670e-01
4.58100e+03 9.57226e-01
4.58150e+03 9.58891e-01
4.58200e+03 9.60017e-01
4.58250e+03 9.61358e-01
4.58300e+03 9.62051e-01
4.58350e+03 9.63609e-01
4.58400e+03 9.64735e-01
4.58450e+03 9.65970e-01
4.58500e+03 9.66988e-01
4.58550e+03 9.67899e-01
4.58600e+03 9.68270e-01
4.58650e+03 9.69613e-01
4.58700e+03 9.71174e-01
4.58750e+03 9.72086e-01
4.58800e+03 9.72674e-01
4.58850e+03 9.73153e-01
4.58900e+03 9.73524e-01
4.58950e+03 9.74978e-01
4.59000e+03 9.75566e-01
4.59050e+03 9.76047e-01
4.59100e+03 9.77611e-01
4.59150e+03 9.78310e-01
4.59200e+03 9.79226e-01
4.59250e+03 9.79817e-01
4.59300e+03 9.79866e-01
4.59350e+03 9.81325e-01
4.59400e+03 9.82243e-01
4.59450e+03 9.82076e-01
4.59500e+03 9.82559e-01
4.59550e+03 9.83259e-01
4.59600e+03 9.83959e-01
4.59650e+03 9.84876e-01
4.59700e+03 9.84923e-01
4.59750e+03 9.84428e-01
4.59800e+03 9.84366e-01
4.59850e+03 9.84738e-01
4.59900e+03 9.84566e-01
4.59950e+03 9.84719e-01
4.60000e+03 9.84544e-01
4.60050e+03 9.84477e-01
4.60100e+03 9.84517e-01
4.60150e+03 9.84231e-01
4.60200e+03 9.84379e-01
4.60250e+03 9.84960e-01
4.60300e+03 9.84889e-01
4.60350e+03 9.84925e-01
4.60400e+03 9.85396e-01
4.60450e+03 9.84780e-01
4.60500e+03 9.85250e-01
4.60550e+03 9.84958e-01
4.60600e+03 9.85864e-01
4.60650e+03 9.86008e-01
4.60700e+03 9.85825e-01
4.60750e+03 9.85969e-01
4.60800e+03 9.86658e-01
4.60850e+03 9.87129e-01
4.60900e+03 9.88145e-01
4.60950e+03 9.88181e-01
4.61000e+03 9.88000e-01
4.61050e+03 9.87710e-01
4.61100e+03 9.87311e-01
4.61150e+03 9.87130e-01
4.61200e+03 9.87057e-01
4.61250e+03 9.87967e-01
4.61300e+03 9.88441e-01
4.61350e+03 9.89241e-01
4.61400e+03 9.88952e-01
4.61450e+03 9.89317e-01
4.61500e+03 9.89572e-01
4.61550e+03 9.89937e-01
4.61600e+03 9.89537e-01
4.61650e+03 9.89574e-01
4.61700e+03 9.89284e-01
4.61750e+03 9.89430e-01
4.61800e+03 9.90122e-01
4.61850e+03 9.90596e-01
4.61900e+03 9.91508e-01
4.61950e+03 9.92747e-01
4.62000e+03 9.93003e-01
4.62050e+03 9.92712e-01
4.62100e+03 9.93295e-01
4.62150e+03 9.93222e-01
4.62200e+03 9.93260e-01
4.62250e+03 9.93297e-01
4.62300e+03 9.93443e-01
4.62350e+03 9.93370e-01
4.62400e+03 9.93297e-01
4.62450e+03 9.93114e-01
4.62500e+03 9.93041e-01
4.62550e+03 9.92968e-01
4.62600e+03 9.92894e-01
4.62650e+03 9.92712e-01
4.62700e+03 9.92310e-01
4.62750e+03 9.91799e-01
4.62800e+03 9.90958e-01
4.62850e+03 9.91103e-01
4.62900e+03 9.90701e-01
4.62950e+03 9.90190e-01
4.63000e+03 9.90225e-01
4.63050e+03 9.90152e-01
4.63100e+03 9.90188e-01
4.63150e+03 9.90334e-01
4.63200e+03 9.90480e-01
4.63250e+03 9.90188e-01
4.63300e+03 9.90114e-01
4.63350e+03 9.90370e-01
4.63400e+03 9.90296e-01
4.63450e+03 9.90442e-01
4.63500e+03 9.91028e-01
4.63550e+03 9.90735e-01
4.63600e+03 9.91211e-01
4.63650e+03 9.90808e-01
4.63700e+03 9.90954e-01
4.63750e+03 9.91650e-01
4.63800e+03 9.91576e-01
4.63850e+03 9.90952e-01
4.63900e+03 9.90769e-01
4.63950e+03 9.90694e-01
4.64000e+03 9.91060e-01
4.64050e+03 9.91756e-01
4.64100e+03 9.91681e-01
4.64150e+03 9.91277e-01
4.64200e+03 9.92082e-01
4.64250e+03 9.92448e-01
4.64300e+03 9.92154e-01
4.64350e+03 9.92629e-01
4.64400e+03 9.93655e-01
4.64450e+03 9.94351e-01
4.64500e+03 9.94718e-01
4.64550e+03 9.94973e-01
4.64600e+03 9.96111e-01
4.64650e+03 9.97138e-01
4.64700e+03 9.97394e-01
4.64750e+03 9.97981e-01
4.64800e+03 9.97686e-01
4.64850e+03 9.97943e-01
4.64900e+03 9.99302e-01
4.64950e+03 1.00000e+00
4.65000e+03 9.99375e-01
4.65050e+03 9.99632e-01
4.65100e+03 9.99668e-01
4.65150e+03 9.99375e-01
4.65200e+03 9.99080e-01
4.65250e+03 9.99890e-01
4.65300e+03 9.99595e-01
4.65350e+03 9.99521e-01
4.65400e+03 9.99227e-01
4.65450e+03 9.98932e-01
4.65500e+03 9.98858e-01
4.65550e+03 9.98232e-01
4.65600e+03 9.98379e-01
4.65650e+03 9.98416e-01
4.65700e+03 9.97789e-01
4.65750e+03 9.97273e-01
4.65800e+03 9.97198e-01
4.65850e+03 9.96902e-01
4.65900e+03 9.96938e-01
4.65950e+03 9.96642e-01
4.66000e+03 9.96346e-01
4.66050e+03 9.94943e-01
4.66100e+03 9.94535e-01
4.66150e+03 9.94128e-01
4.66200e+03 9.92945e-01
4.66250e+03 9.93201e-01
4.66300e+03 9.92793e-01
4.66350e+03 9.92716e-01
4.66400e+03 9.92639e-01
4.66450e+03 9.91455e-01
4.66500e+03 9.90603e-01
4.66550e+03 9.90526e-01
4.66600e+03 9.89895e-01
4.66650e+03 9.89042e-01
4.66700e+03 9.88299e-01
4.66750e+03 9.87889e-01
4.66800e+03 9.87036e-01
4.66850e+03 9.86514e-01
4.66900e+03 9.85328e-01
4.66950e+03 9.84918e-01
4.67000e+03 9.84618e-01
4.67050e+03 9.83430e-01
4.67100e+03 9.82576e-01
4.67150e+03 9.81943e-01
4.67200e+03 9.81087e-01
4.67250e+03 9.80565e-01
4.67300e+03 9.80264e-01
4.67350e+03 9.79964e-01
4.67400e+03 9.80108e-01
4.67450e+03 9.79362e-01
4.67500e+03 9.78950e-01
4.67550e+03 9.78205e-01
4.67600e+03 9.77682e-01
4.67650e+03 9.77492e-01
4.67700e+03 9.77523e-01
4.67750e+03 9.76110e-01
4.67800e+03 9.75697e-01
4.67850e+03 9.75284e-01
4.67900e+03 9.75092e-01
4.67950e+03 9.73788e-01
4.68000e+03 9.72930e-01
4.68050e+03 9.71847e-01
4.68100e+03 9.70876e-01
4.68150e+03 9.69348e-01
4.68200e+03 9.67597e-01
4.68250e+03 9.67181e-01
4.68300e+03 9.66432e-01
4.68350e+03 9.65682e-01
4.68400e+03 9.64931e-01
4.68450e+03 9.63512e-01
4.68500e+03 9.62538e-01
4.68550e+03 9.62233e-01
4.68600e+03 9.60923e-01
4.68650e+03 9.59837e-01
4.68700e+03 9.58639e-01
4.68750e+03 9.57998e-01
4.68800e+03 9.56800e-01
4.68850e+03 9.56716e-01
4.68900e+03 9.55516e-01
4.68950e+03 9.54540e-01
4.69000e+03 9.53674e-01
4.69050e+03 9.52474e-01
4.69100e+03 9.51498e-01
4.69150e+03 9.50409e-01
4.69200e+03 9.49097e-01
4.69250e+03 9.48121e-01
4.69300e+03 9.47255e-01
4.69350e+03 9.45719e-01
4.69400e+03 9.44631e-01
4.69450e+03 9.43318e-01
4.69500e+03 9.41445e-01
4.69550e+03 9.39907e-01
4.69600e+03 9.37920e-01
4.69650e+03 9.35710e-01
4.69700e+03 9.34056e-01
4.69750e+03 9.32625e-01
4.69800e+03 9.31304e-01
4.69850e+03 9.29312e-01
4.69900e+03 9.27093e-01
4.69950e+03 9.24985e-01
4.70000e+03 9.22876e-01
4.70050e+03 9.20653e-01
4.70100e+03 9.18539e-01
4.70150e+03 9.16200e-01
4.70200e+03 9.13859e-01
4.70250e+03 9.11405e-01
4.70300e+03 9.09398e-01
4.70350e+03 9.07389e-01
4.70400e+03 9.05827e-01
4.70450e+03 9.03704e-01
4.70500e+03 9.01356e-01
4.70550e+03 8.98559e-01
4.70600e+03 8.94639e-01
4.70650e+03 8.92289e-01
4.70700e+03 8.89824e-01
4.70750e+03 8.87584e-01
4.70800e+03 8.85119e-01
4.70850e+03 8.82654e-01
4.70900e+03 8.79514e-01
4.70950e+03 8.76374e-01
4.71000e+03 8.73010e-01
4.71050e+03 8.69981e-01
4.71100e+03 8.66839e-01
4.71150e+03 8.63136e-01
4.71200e+03 8.59542e-01
4.71250e+03 8.56062e-01
4.71300e+03 8.52242e-01
4.71350e+03 8.48870e-01
4.71400e+03 8.45723e-01
4.71450e+03 8.42238e-01
4.71500e+03 8.37964e-01
4.71550e+03 8.33466e-01
4.71600e+03 8.28965e-01
4.71650e+03 8.24576e-01
4.71700e+03 8.20074e-01
4.71750e+03 8.16245e-01
4.71800e+03 8.11853e-01
4.71850e+03 8.07348e-01
4.71900e+03 8.02729e-01
4.71950e+03 7.98445e-01
4.72000e+03 7.93600e-01
4.72050e+03 7.88751e-01
4.72100e+03 7.84241e-01
4.72150e+03 7.79053e-01
4.72200e+03 7.73975e-01
4.72250e+03 7.68673e-01
4.72300e+03 7.63256e-01
4.72350e+03 7.58513e-01
4.72400e+03 7.53319e-01
4.72450e+03 7.47785e-01
4.72500e+03 7.42250e-01
4.72550e+03 7.36150e-01
4.72600e+03 7.30950e-01
4.72650e+03 7.25297e-01
4.72700e+03 7.19644e-01
4.72750e+03 7.13650e-01
4.72800e+03 7.07882e-01
4.72850e+03 7.01773e-01
4.72900e+03 6.95436e-01
4.72950e+03 6.89098e-01
4.73000e+03 6.82984e-01
4.73050e+03 6.76192e-01
4.73100e+03 6.69736e-01
4.73150e+03 6.63053e-01
4.73200e+03 6.56256e-01
4.73250e+03 6.49795e-01
4.73300e+03 6.43333e-01
4.73350e+03 6.36756e-01
4.73400e+03 6.29500e-01
4.73450e+03 6.22242e-01
4.73500e+03 6.15208e-01
4.73550e+03 6.08058e-01
4.73600e+03 6.01247e-01
4.73650e+03 5.94094e-01
4.73700e+03 5.86600e-01
4.73750e+03 5.79218e-01
4.73800e+03 5.72399e-01
4.73850e+03 5.65238e-01
4.73900e+03 5.58302e-01
4.73950e+03 5.50686e-01
4.74000e+03 5.43294e-01
4.74050e+03 5.36125e-01
4.74100e+03 5.28842e-01
4.74150e+03 5.21331e-01
4.74200e+03 5.13704e-01
4.74250e+03 5.06755e-01
4.74300e+03 4.99125e-01
4.74350e+03 4.91719e-01
4.74400e+03 4.84084e-01
4.74450e+03 4.76787e-01
4.74500e+03 4.69602e-01
4.74550e+03 4.62187e-01
4.74600e+03 4.54319e-01
4.74650e+03 4.46675e-01
4.74700e+03 4.39595e-01
4.74750e+03 4.31947e-01
4.74800e+03 4.24637e-01
4.74850e+03 4.17325e-01
4.74900e+03 4.09444e-01
4.74950e+03 4.02355e-01
4.75000e+03 3.95150e-01
4.75050e+03 3.87490e-01
4.75100e+03 3.80168e-01
4.75150e+03 3.72730e-01
4.75200e+03 3.65292e-01
4.75250e+03 3.58077e-01
4.75300e+03 3.50862e-01
4.75350e+03 3.43984e-01
4.75400e+03 3.36651e-01
4.75450e+03 3.29657e-01
4.75500e+03 3.22434e-01
4.75550e+03 3.15549e-01
4.75600e+03 3.08890e-01
4.75650e+03 3.01775e-01
4.75700e+03 2.94884e-01
4.75750e+03 2.87879e-01
4.75800e+03 2.81100e-01
4.75850e+03 2.74544e-01
4.75900e+03 2.67988e-01
4.75950e+03 2.61544e-01
4.76000e+03 2.55440e-01
4.76050e+03 2.48879e-01
4.76100e+03 2.42770e-01
4.76150e+03 2.36206e-01
4.76200e+03 2.30322e-01
4.76250e+03 2.24323e-01
4.76300e+03 2.18322e-01
4.76350e+03 2.12661e-01
4.76400e+03 2.06656e-01
4.76450e+03 2.00766e-01
4.76500e+03 1.95442e-01
4.76550e+03 1.90003e-01
4.76600e+03 1.84561e-01
4.76650e+03 1.79575e-01
4.76700e+03 1.74587e-01
4.76750e+03 1.69599e-01
4.76800e+03 1.64608e-01
4.76850e+03 1.59844e-01
4.76900e+03 1.54852e-01
4.76950e+03 1.50540e-01
4.77000e+03 1.46001e-01
4.77050e+03 1.41460e-01
4.77100e+03 1.37146e-01
4.77150e+03 1.32945e-01
4.77200e+03 1.28744e-01
4.77250e+03 1.25111e-01
4.77300e+03 1.21363e-01
4.77350e+03 1.17728e-01
4.77400e+03 1.13841e-01
4.77450e+03 1.10147e-01
4.77500e+03 1.06429e-01
4.77550e+03 1.02939e-01
4.77600e+03 9.95964e-02
4.77650e+03 9.62985e-02
4.77700e+03 9.30567e-02
4.77750e+03 8.99512e-02
4.77800e+03 8.71531e-02
4.77850e+03 8.43431e-02
4.77900e+03 8.14180e-02
4.77950e+03 7.85721e-02
4.78000e+03 7.57598e-02
4.78050e+03 7.30839e-02
4.78100e+03 7.04073e-02
4.78150e+03 6.79700e-02
4.78200e+03 6.58523e-02
4.78250e+03 6.34368e-02
4.78300e+03 6.12951e-02
4.78350e+03 5.91070e-02
4.78400e+03 5.69642e-02
4.78450e+03 5.50726e-02
4.78500e+03 5.32261e-02
4.78550e+03 5.13220e-02
4.78600e+03 4.94402e-02
4.78650e+03 4.76954e-02
4.78700e+03 4.60989e-02
4.78750e+03 4.43760e-02
4.78800e+03 4.31337e-02
4.78850e+03 4.16390e-02
4.78900e+03 4.01211e-02
4.78950e+03 3.87173e-02
4.79000e+03 3.74278e-02
4.79050e+03 3.62409e-02
4.79100e+03 3.49164e-02
4.79150e+03 3.38551e-02
4.79200e+03 3.26903e-02
4.79250e+03 3.15940e-02
4.79300e+03 3.04287e-02
4.79350e+03 2.93547e-02
4.79400e+03 2.83150e-02
4.79450e+03 2.73208e-02
4.79500e+03 2.63951e-02
4.79550e+03 2.55267e-02
4.79600e+03 2.45087e-02
4.79650e+03 2.35824e-02
4.79700e+03 2.28051e-02
4.79750e+03 2.20389e-02
4.79800e+03 2.12496e-02
4.79850e+03 2.04142e-02
4.79900e+03 1.96590e-02
4.79950e+03 1.89035e-02
4.80000e+03 1.82284e-02
4.80050e+03 1.75416e-02
4.80100e+03 1.70385e-02
4.80150e+03 1.64780e-02
4.80200e+03 1.59403e-02
4.80250e+03 1.54139e-02
4.80300e+03 1.48875e-02
4.80350e+03 1.43494e-02
4.80400e+03 1.38802e-02
4.80450e+03 1.35143e-02
4.80500e+03 1.29874e-02
4.80550e+03 1.23796e-02
4.80600e+03 1.19213e-02
4.80650e+03 1.15434e-02
4.80700e+03 1.11884e-02
4.80750e+03 1.08390e-02
4.80800e+03 1.04366e-02
4.80850e+03 1.01387e-02
4.80900e+03 9.85924e-03
4.80950e+03 9.52668e-03
4.81000e+03 9.24701e-03
4.81050e+03 8.91426e-03
4.81100e+03 8.56411e-03
4.81150e+03 8.24844e-03
4.81200e+03 7.95112e-03
4.81250e+03 7.67100e-03
4.81300e+03 7.46114e-03
4.81350e+03 7.18086e-03
4.81400e+03 6.91780e-03
4.81450e+03 6.72504e-03
4.81500e+03 6.53220e-03
4.81550e+03 6.32201e-03
4.81600e+03 6.21678e-03
4.81650e+03 5.93605e-03
4.81700e+03 5.74299e-03
4.81750e+03 5.49789e-03
4.81800e+03 5.26889e-03
4.81850e+03 5.11144e-03
4.81900e+03 4.95394e-03
4.81950e+03 4.76057e-03
4.82000e+03 4.58448e-03
4.82050e+03 4.40950e-03
4.82100e+03 4.25064e-03
4.82150e+03 4.21661e-03
4.82200e+03 4.14671e-03
4.82250e+03 3.97040e-03
4.82300e+03 3.86576e-03
4.82350e+03 3.72521e-03
4.82400e+03 3.54875e-03
4.82450e+03 3.46134e-03
4.82500e+03 3.32068e-03
4.82550e+03 3.17996e-03
4.82600e+03 3.12718e-03
4.82650e+03 2.98640e-03
4.82700e+03 2.91621e-03
4.82750e+03 2.91665e-03
4.82800e+03 2.86382e-03
4.82850e+03 2.75765e-03
4.82900e+03 2.70593e-03
4.82950e+03 2.59971e-03
4.83000e+03 2.49345e-03
4.83050e+03 2.47644e-03
4.83100e+03 2.30058e-03
4.83150e+03 2.21163e-03
4.83200e+03 2.15977e-03
4.83250e+03 2.14153e-03
4.83300e+03 2.05368e-03
4.83350e+03 2.00062e-03
4.83400e+03 1.94753e-03
4.83450e+03 1.93041e-03
4.83500e+03 1.85989e-03
4.83550e+03 1.78934e-03
4.83600e+03 1.70135e-03
4.83650e+03 1.63076e-03
4.83700e+03 1.54272e-03
4.83750e+03 1.52437e-03
4.83800e+03 1.48974e-03
4.83850e+03 1.41906e-03
4.83900e+03 1.34837e-03
4.83950e+03 1.27767e-03
4.84000e+03 0.00000e+00
