# Filter name : HST/ACS_WFC.FR462N
# Description : FR462N ramp filter for HST ACS_WFC at central wavelength
# Photometric system : ACS-WFC
# FilterType : photon
# Band name : ------
# Observatory : HST
# Instrument : ACS
# Comments : Response calculated using the stsynphot python package by STScI. In particular, function stsynphot.band("acs,wfc1,fr462n#4620"). Please, take a look to stsynphot documentation and HST instrument documentation
# 
4.32800e+03 5.55511e-05
4.32900e+03 5.68114e-05
4.33000e+03 5.80718e-05
4.33100e+03 5.93288e-05
4.33200e+03 6.05859e-05
4.33300e+03 6.18431e-05
4.33400e+03 6.31689e-05
4.33500e+03 6.44948e-05
4.33600e+03 6.58208e-05
4.33700e+03 6.71467e-05
4.33800e+03 6.84729e-05
4.33900e+03 6.98626e-05
4.34000e+03 7.12526e-05
4.34100e+03 7.26516e-05
4.34200e+03 7.40509e-05
4.34300e+03 7.54509e-05
4.34400e+03 7.69089e-05
4.34500e+03 7.83676e-05
4.34600e+03 7.98266e-05
4.34700e+03 8.12861e-05
4.34800e+03 8.27461e-05
4.34900e+03 8.42580e-05
4.35000e+03 8.57704e-05
4.35100e+03 8.72713e-05
4.35200e+03 8.87721e-05
4.35300e+03 9.02732e-05
4.35400e+03 9.18188e-05
4.35500e+03 9.33642e-05
4.35600e+03 9.49098e-05
4.35700e+03 9.64557e-05
4.35800e+03 9.80015e-05
4.35900e+03 9.95841e-05
4.36000e+03 1.01167e-04
4.36100e+03 1.02757e-04
4.36200e+03 1.04346e-04
4.36300e+03 1.05937e-04
4.36400e+03 1.07556e-04
4.36500e+03 1.09176e-04
4.36600e+03 1.10796e-04
4.36700e+03 1.12417e-04
4.36800e+03 1.14037e-04
4.36900e+03 1.15679e-04
4.37000e+03 1.17321e-04
4.37100e+03 1.18965e-04
4.37200e+03 1.20610e-04
4.37300e+03 1.22255e-04
4.37400e+03 1.23913e-04
4.37500e+03 1.25572e-04
4.37600e+03 1.27231e-04
4.37700e+03 1.28890e-04
4.37800e+03 1.30549e-04
4.37900e+03 1.32214e-04
4.38000e+03 1.33878e-04
4.38100e+03 1.35527e-04
4.38200e+03 1.37177e-04
4.38300e+03 1.38826e-04
4.38400e+03 1.40472e-04
4.38500e+03 1.42118e-04
4.38600e+03 1.43764e-04
4.38700e+03 1.45410e-04
4.38800e+03 1.47055e-04
4.38900e+03 1.48690e-04
4.39000e+03 1.50324e-04
4.39100e+03 1.51954e-04
4.39200e+03 1.53583e-04
4.39300e+03 1.55213e-04
4.39400e+03 1.56823e-04
4.39500e+03 1.58434e-04
4.39600e+03 1.60045e-04
4.39700e+03 1.61656e-04
4.39800e+03 1.63266e-04
4.39900e+03 1.64851e-04
4.40000e+03 1.66437e-04
4.40100e+03 1.68042e-04
4.40200e+03 1.69647e-04
4.40300e+03 1.71253e-04
4.40400e+03 1.72828e-04
4.40500e+03 1.74403e-04
4.40600e+03 1.75979e-04
4.40700e+03 1.77554e-04
4.40800e+03 1.79131e-04
4.40900e+03 1.80671e-04
4.41000e+03 1.82213e-04
4.41100e+03 1.83750e-04
4.41200e+03 1.85288e-04
4.41300e+03 1.86826e-04
4.41400e+03 1.88325e-04
4.41500e+03 1.89823e-04
4.41600e+03 1.91322e-04
4.41700e+03 1.92821e-04
4.41800e+03 1.94321e-04
4.41900e+03 1.95778e-04
4.42000e+03 1.97235e-04
4.42100e+03 1.98649e-04
4.42200e+03 2.00063e-04
4.42300e+03 2.01476e-04
4.42400e+03 2.02844e-04
4.42500e+03 2.04213e-04
4.42600e+03 2.05580e-04
4.42700e+03 2.06948e-04
4.42800e+03 2.08314e-04
4.42900e+03 2.09637e-04
4.43000e+03 2.10959e-04
4.43100e+03 2.12312e-04
4.43200e+03 2.13665e-04
4.43300e+03 2.15018e-04
4.43400e+03 2.16330e-04
4.43500e+03 2.17641e-04
4.43600e+03 2.18952e-04
4.43700e+03 2.20263e-04
4.43800e+03 2.21575e-04
4.43900e+03 2.22849e-04
4.44000e+03 2.24122e-04
4.44100e+03 2.25416e-04
4.44200e+03 2.26710e-04
4.44300e+03 2.28004e-04
4.44400e+03 2.29268e-04
4.44500e+03 2.30532e-04
4.44600e+03 2.31797e-04
4.44700e+03 2.33062e-04
4.44800e+03 2.34327e-04
4.44900e+03 2.35574e-04
4.45000e+03 2.36822e-04
4.45100e+03 2.38034e-04
4.45200e+03 2.39247e-04
4.45300e+03 2.40460e-04
4.45400e+03 2.41671e-04
4.45500e+03 2.42881e-04
4.45600e+03 2.44092e-04
4.45700e+03 2.45302e-04
4.45800e+03 2.46512e-04
4.45900e+03 2.47744e-04
4.46000e+03 2.48975e-04
4.46100e+03 2.50242e-04
4.46200e+03 2.51506e-04
4.46300e+03 2.52772e-04
4.46400e+03 2.54094e-04
4.46500e+03 2.55416e-04
4.46600e+03 2.56738e-04
4.46700e+03 2.58060e-04
4.46800e+03 2.59383e-04
4.46900e+03 2.60809e-04
4.47000e+03 2.62236e-04
4.47100e+03 2.63636e-04
4.47200e+03 2.65035e-04
4.47300e+03 2.66434e-04
4.47400e+03 2.68006e-04
4.47500e+03 2.69578e-04
4.47600e+03 2.71150e-04
4.47700e+03 2.72722e-04
4.47800e+03 2.74293e-04
4.47900e+03 2.76138e-04
4.48000e+03 2.77982e-04
4.48100e+03 2.79809e-04
4.48200e+03 2.81635e-04
4.48300e+03 2.83461e-04
4.48400e+03 2.85706e-04
4.48500e+03 2.87952e-04
4.48600e+03 2.90196e-04
4.48700e+03 2.92440e-04
4.48800e+03 2.94684e-04
4.48900e+03 2.97566e-04
4.49000e+03 3.00448e-04
4.49100e+03 3.03356e-04
4.49200e+03 3.06265e-04
4.49300e+03 3.09172e-04
4.49400e+03 3.13052e-04
4.49500e+03 3.16931e-04
4.49600e+03 3.20812e-04
4.49700e+03 3.24691e-04
4.49800e+03 3.28570e-04
4.49900e+03 3.33936e-04
4.50000e+03 3.39299e-04
4.50100e+03 3.44635e-04
4.50200e+03 3.49969e-04
4.50300e+03 3.55302e-04
4.50400e+03 3.62926e-04
4.50500e+03 3.70549e-04
4.50600e+03 3.78169e-04
4.50700e+03 3.85789e-04
4.50800e+03 3.93406e-04
4.50900e+03 4.04610e-04
4.51000e+03 4.15810e-04
4.51100e+03 4.27022e-04
4.51200e+03 4.38231e-04
4.51300e+03 4.49439e-04
4.51400e+03 4.66355e-04
4.51500e+03 4.83269e-04
4.51600e+03 5.00180e-04
4.51700e+03 5.17089e-04
4.51800e+03 5.33993e-04
4.51900e+03 5.60170e-04
4.52000e+03 5.86343e-04
4.52100e+03 6.12573e-04
4.52200e+03 6.38805e-04
4.52300e+03 6.65038e-04
4.52400e+03 7.06690e-04
4.52500e+03 7.48345e-04
4.52600e+03 7.90002e-04
4.52700e+03 8.31659e-04
4.52800e+03 8.73319e-04
4.52900e+03 9.41279e-04
4.53000e+03 1.00924e-03
4.53100e+03 1.07708e-03
4.53200e+03 1.14490e-03
4.53300e+03 1.21271e-03
4.53400e+03 1.32662e-03
4.53500e+03 1.44051e-03
4.53600e+03 1.55437e-03
4.53700e+03 1.66821e-03
4.53800e+03 1.78203e-03
4.53900e+03 1.97919e-03
4.54000e+03 2.17632e-03
4.54100e+03 2.37351e-03
4.54200e+03 2.57071e-03
4.54300e+03 2.76787e-03
4.54400e+03 3.12062e-03
4.54500e+03 3.47333e-03
4.54600e+03 3.82600e-03
4.54700e+03 4.17864e-03
4.54800e+03 4.53124e-03
4.54900e+03 5.18331e-03
4.55000e+03 5.83530e-03
4.55100e+03 6.48648e-03
4.55200e+03 7.13743e-03
4.55300e+03 7.78816e-03
4.55400e+03 9.02853e-03
4.55500e+03 1.02685e-02
4.55600e+03 1.15080e-02
4.55700e+03 1.27471e-02
4.55800e+03 1.39858e-02
4.55900e+03 1.63872e-02
4.56000e+03 1.87879e-02
4.56100e+03 2.11913e-02
4.56200e+03 2.35946e-02
4.56300e+03 2.59979e-02
4.56400e+03 3.05760e-02
4.56500e+03 3.51540e-02
4.56600e+03 3.97320e-02
4.56700e+03 4.43100e-02
4.56800e+03 4.88879e-02
4.56900e+03 5.68674e-02
4.57000e+03 6.48469e-02
4.57100e+03 7.28185e-02
4.57200e+03 8.07882e-02
4.57300e+03 8.87560e-02
4.57400e+03 1.00123e-01
4.57500e+03 1.11487e-01
4.57600e+03 1.22849e-01
4.57700e+03 1.34208e-01
4.57800e+03 1.45564e-01
4.57900e+03 1.57381e-01
4.58000e+03 1.69195e-01
4.58100e+03 1.81004e-01
4.58200e+03 1.92809e-01
4.58300e+03 2.04611e-01
4.58400e+03 2.12919e-01
4.58500e+03 2.21225e-01
4.58600e+03 2.29528e-01
4.58700e+03 2.37829e-01
4.58800e+03 2.46128e-01
4.58900e+03 2.50028e-01
4.59000e+03 2.53927e-01
4.59100e+03 2.57857e-01
4.59200e+03 2.61788e-01
4.59300e+03 2.65719e-01
4.59400e+03 2.67017e-01
4.59500e+03 2.68316e-01
4.59600e+03 2.69615e-01
4.59700e+03 2.70913e-01
4.59800e+03 2.72212e-01
4.59900e+03 2.72519e-01
4.60000e+03 2.72827e-01
4.60100e+03 2.73117e-01
4.60200e+03 2.73407e-01
4.60300e+03 2.73697e-01
4.60400e+03 2.73727e-01
4.60500e+03 2.73758e-01
4.60600e+03 2.73789e-01
4.60700e+03 2.73819e-01
4.60800e+03 2.73849e-01
4.60900e+03 2.73835e-01
4.61000e+03 2.73821e-01
4.61100e+03 2.73788e-01
4.61200e+03 2.73755e-01
4.61300e+03 2.73722e-01
4.61400e+03 2.73685e-01
4.61500e+03 2.73648e-01
4.61600e+03 2.73611e-01
4.61700e+03 2.73573e-01
4.61800e+03 2.73536e-01
4.61900e+03 2.73499e-01
4.62000e+03 2.73461e-01
4.62100e+03 2.73462e-01
4.62200e+03 2.73463e-01
4.62300e+03 2.73465e-01
4.62400e+03 2.73466e-01
4.62500e+03 2.73466e-01
4.62600e+03 2.73467e-01
4.62700e+03 2.73467e-01
4.62800e+03 2.73468e-01
4.62900e+03 2.73460e-01
4.63000e+03 2.73452e-01
4.63100e+03 2.73413e-01
4.63200e+03 2.73374e-01
4.63300e+03 2.73334e-01
4.63400e+03 2.73225e-01
4.63500e+03 2.73115e-01
4.63600e+03 2.73005e-01
4.63700e+03 2.72895e-01
4.63800e+03 2.72785e-01
4.63900e+03 2.72318e-01
4.64000e+03 2.71852e-01
4.64100e+03 2.71398e-01
4.64200e+03 2.70943e-01
4.64300e+03 2.70489e-01
4.64400e+03 2.68792e-01
4.64500e+03 2.67096e-01
4.64600e+03 2.65400e-01
4.64700e+03 2.63703e-01
4.64800e+03 2.62008e-01
4.64900e+03 2.57321e-01
4.65000e+03 2.52635e-01
4.65100e+03 2.47954e-01
4.65200e+03 2.43273e-01
4.65300e+03 2.38593e-01
4.65400e+03 2.29480e-01
4.65500e+03 2.20369e-01
4.65600e+03 2.11258e-01
4.65700e+03 2.02149e-01
4.65800e+03 1.93040e-01
4.65900e+03 1.81014e-01
4.66000e+03 1.68988e-01
4.66100e+03 1.56968e-01
4.66200e+03 1.44949e-01
4.66300e+03 1.32930e-01
4.66400e+03 1.22087e-01
4.66500e+03 1.11246e-01
4.66600e+03 1.00405e-01
4.66700e+03 8.95640e-02
4.66800e+03 7.87238e-02
4.66900e+03 7.15173e-02
4.67000e+03 6.43111e-02
4.67100e+03 5.71034e-02
4.67200e+03 4.98966e-02
4.67300e+03 4.26905e-02
4.67400e+03 3.86821e-02
4.67500e+03 3.46741e-02
4.67600e+03 3.06666e-02
4.67700e+03 2.66595e-02
4.67800e+03 2.26529e-02
4.67900e+03 2.05710e-02
4.68000e+03 1.84894e-02
4.68100e+03 1.64082e-02
4.68200e+03 1.43273e-02
4.68300e+03 1.22465e-02
4.68400e+03 1.11714e-02
4.68500e+03 1.00965e-02
4.68600e+03 9.02164e-03
4.68700e+03 7.94688e-03
4.68800e+03 6.87222e-03
4.68900e+03 6.30480e-03
4.69000e+03 5.73744e-03
4.69100e+03 5.17014e-03
4.69200e+03 4.60289e-03
4.69300e+03 4.03569e-03
4.69400e+03 3.72669e-03
4.69500e+03 3.41773e-03
4.69600e+03 3.10877e-03
4.69700e+03 2.79985e-03
4.69800e+03 2.49095e-03
4.69900e+03 2.31699e-03
4.70000e+03 2.14303e-03
4.70100e+03 1.96920e-03
4.70200e+03 1.79535e-03
4.70300e+03 1.62150e-03
4.70400e+03 1.52041e-03
4.70500e+03 1.41932e-03
4.70600e+03 1.31823e-03
4.70700e+03 1.21714e-03
4.70800e+03 1.11604e-03
4.70900e+03 1.05545e-03
4.71000e+03 9.94854e-04
4.71100e+03 9.34120e-04
4.71200e+03 8.73405e-04
4.71300e+03 8.12706e-04
4.71400e+03 7.75250e-04
4.71500e+03 7.37803e-04
4.71600e+03 7.00366e-04
4.71700e+03 6.62941e-04
4.71800e+03 6.25525e-04
4.71900e+03 6.01806e-04
4.72000e+03 5.78095e-04
4.72100e+03 5.54465e-04
4.72200e+03 5.30836e-04
4.72300e+03 5.07207e-04
4.72400e+03 4.91852e-04
4.72500e+03 4.76498e-04
4.72600e+03 4.61143e-04
4.72700e+03 4.45788e-04
4.72800e+03 4.30434e-04
4.72900e+03 4.20196e-04
4.73000e+03 4.09957e-04
4.73100e+03 3.99706e-04
4.73200e+03 3.89455e-04
4.73300e+03 3.79206e-04
4.73400e+03 3.72182e-04
4.73500e+03 3.65157e-04
4.73600e+03 3.58134e-04
4.73700e+03 3.51111e-04
4.73800e+03 3.44089e-04
4.73900e+03 3.39133e-04
4.74000e+03 3.34177e-04
4.74100e+03 3.29200e-04
4.74200e+03 3.24224e-04
4.74300e+03 3.19249e-04
4.74400e+03 3.15617e-04
4.74500e+03 3.11984e-04
4.74600e+03 3.08352e-04
4.74700e+03 3.04722e-04
4.74800e+03 3.01091e-04
4.74900e+03 2.98340e-04
4.75000e+03 2.95589e-04
4.75100e+03 2.92883e-04
4.75200e+03 2.90176e-04
4.75300e+03 2.87470e-04
4.75400e+03 2.85340e-04
4.75500e+03 2.83210e-04
4.75600e+03 2.81081e-04
4.75700e+03 2.78951e-04
4.75800e+03 2.76820e-04
4.75900e+03 2.75069e-04
4.76000e+03 2.73317e-04
4.76100e+03 2.71541e-04
4.76200e+03 2.69765e-04
4.76300e+03 2.67990e-04
4.76400e+03 2.66459e-04
4.76500e+03 2.64929e-04
4.76600e+03 2.63399e-04
4.76700e+03 2.61869e-04
4.76800e+03 2.60339e-04
4.76900e+03 2.58964e-04
4.77000e+03 2.57588e-04
4.77100e+03 2.56232e-04
4.77200e+03 2.54877e-04
4.77300e+03 2.53521e-04
4.77400e+03 2.52256e-04
4.77500e+03 2.50992e-04
4.77600e+03 2.49727e-04
4.77700e+03 2.48462e-04
4.77800e+03 2.47198e-04
4.77900e+03 2.45980e-04
4.78000e+03 2.44761e-04
4.78100e+03 2.43522e-04
4.78200e+03 2.42283e-04
4.78300e+03 2.41045e-04
4.78400e+03 2.39822e-04
4.78500e+03 2.38599e-04
4.78600e+03 2.37377e-04
4.78700e+03 2.36155e-04
4.78800e+03 2.34933e-04
4.78900e+03 2.33706e-04
4.79000e+03 2.32478e-04
4.79100e+03 2.31258e-04
4.79200e+03 2.30037e-04
4.79300e+03 2.28816e-04
4.79400e+03 2.27576e-04
4.79500e+03 2.26334e-04
4.79600e+03 2.25093e-04
4.79700e+03 2.23852e-04
4.79800e+03 2.22611e-04
4.79900e+03 2.21340e-04
4.80000e+03 2.20068e-04
4.80100e+03 2.18807e-04
4.80200e+03 2.17545e-04
4.80300e+03 2.16284e-04
4.80400e+03 2.14985e-04
4.80500e+03 2.13686e-04
4.80600e+03 2.12387e-04
4.80700e+03 2.11088e-04
4.80800e+03 2.09789e-04
4.80900e+03 2.08449e-04
4.81000e+03 2.07108e-04
4.81100e+03 2.05769e-04
4.81200e+03 2.04431e-04
4.81300e+03 2.03092e-04
4.81400e+03 2.01710e-04
4.81500e+03 2.00329e-04
4.81600e+03 1.98946e-04
4.81700e+03 1.97565e-04
4.81800e+03 1.96183e-04
4.81900e+03 1.94758e-04
4.82000e+03 1.93333e-04
4.82100e+03 1.91913e-04
4.82200e+03 1.90494e-04
4.82300e+03 1.89074e-04
4.82400e+03 1.87613e-04
4.82500e+03 1.86152e-04
4.82600e+03 1.84690e-04
4.82700e+03 1.83229e-04
4.82800e+03 1.81768e-04
4.82900e+03 1.80267e-04
4.83000e+03 1.78767e-04
4.83100e+03 1.77272e-04
4.83200e+03 1.75776e-04
4.83300e+03 1.74280e-04
4.83400e+03 1.72749e-04
4.83500e+03 1.71218e-04
4.83600e+03 1.69687e-04
4.83700e+03 1.68155e-04
4.83800e+03 1.66624e-04
4.83900e+03 1.65063e-04
4.84000e+03 1.63503e-04
4.84100e+03 1.61921e-04
4.84200e+03 1.60340e-04
4.84300e+03 1.58759e-04
4.84400e+03 1.57156e-04
4.84500e+03 1.55552e-04
4.84600e+03 1.53949e-04
4.84700e+03 1.52345e-04
4.84800e+03 1.50742e-04
4.84900e+03 1.49123e-04
4.85000e+03 1.47504e-04
4.85100e+03 1.45883e-04
4.85200e+03 1.44263e-04
4.85300e+03 1.42643e-04
4.85400e+03 1.41014e-04
4.85500e+03 1.39385e-04
4.85600e+03 1.37756e-04
4.85700e+03 1.36128e-04
4.85800e+03 1.34499e-04
4.85900e+03 1.32870e-04
4.86000e+03 1.31241e-04
4.86100e+03 1.29635e-04
4.86200e+03 1.28029e-04
4.86300e+03 1.26422e-04
4.86400e+03 1.24822e-04
4.86500e+03 1.23221e-04
4.86600e+03 1.21620e-04
4.86700e+03 1.20018e-04
4.86800e+03 1.18416e-04
4.86900e+03 1.16829e-04
4.87000e+03 1.15241e-04
4.87100e+03 1.13635e-04
4.87200e+03 1.12030e-04
4.87300e+03 1.10424e-04
4.87400e+03 1.08842e-04
4.87500e+03 1.07260e-04
4.87600e+03 1.05678e-04
4.87700e+03 1.04095e-04
4.87800e+03 1.02513e-04
4.87900e+03 1.00962e-04
4.88000e+03 9.94115e-05
4.88100e+03 9.78645e-05
4.88200e+03 9.63174e-05
4.88300e+03 9.47705e-05
4.88400e+03 9.32620e-05
4.88500e+03 9.17534e-05
4.88600e+03 9.02449e-05
4.88700e+03 8.87364e-05
4.88800e+03 8.72278e-05
4.88900e+03 8.57650e-05
4.89000e+03 8.43024e-05
4.89100e+03 8.28483e-05
4.89200e+03 8.13939e-05
4.89300e+03 7.99392e-05
4.89400e+03 7.85369e-05
4.89500e+03 7.71344e-05
4.89600e+03 7.57314e-05
4.89700e+03 7.43281e-05
4.89800e+03 7.29246e-05
4.89900e+03 7.15797e-05
4.90000e+03 7.02344e-05
4.90100e+03 6.88806e-05
4.90200e+03 6.75267e-05
4.90300e+03 6.61728e-05
4.90400e+03 6.48834e-05
4.90500e+03 6.35940e-05
4.90600e+03 6.23046e-05
4.90700e+03 6.10152e-05
4.90800e+03 5.97257e-05
4.90900e+03 5.85053e-05
4.91000e+03 5.72849e-05
4.91100e+03 5.60695e-05
4.91200e+03 5.48540e-05
