# Filter name : CTIO/DECam.Y
# Description : DECam Y filter (total transmission). DR1
# Photometric system : DECam
# FilterType : photon
# Band name : Y
# Observatory : CTIO
# Instrument : DECam
# Comments : The system response includes the total throughput of the system (instrument + atmosphere). 
# 
9.30000e+03 0.00000e+00
9.30500e+03 2.62000e-03
9.31000e+03 5.02000e-03
9.31500e+03 5.10000e-03
9.32000e+03 4.93000e-03
9.32500e+03 5.03000e-03
9.33000e+03 5.35000e-03
9.33500e+03 5.54000e-03
9.34000e+03 5.24000e-03
9.34500e+03 5.28000e-03
9.35000e+03 6.35000e-03
9.35500e+03 7.02000e-03
9.36000e+03 7.18000e-03
9.36500e+03 7.73000e-03
9.37000e+03 7.97000e-03
9.37500e+03 9.11000e-03
9.38000e+03 9.97000e-03
9.38500e+03 1.08300e-02
9.39000e+03 1.29400e-02
9.39500e+03 1.60200e-02
9.40000e+03 1.74200e-02
9.40500e+03 1.80200e-02
9.41000e+03 1.93700e-02
9.41500e+03 2.29800e-02
9.42000e+03 2.57900e-02
9.42500e+03 2.62900e-02
9.43000e+03 2.69600e-02
9.43500e+03 3.46100e-02
9.44000e+03 3.87900e-02
9.44500e+03 4.27900e-02
9.45000e+03 5.41700e-02
9.45500e+03 5.59700e-02
9.46000e+03 5.33700e-02
9.46500e+03 8.18200e-02
9.47000e+03 1.15830e-01
9.47500e+03 1.16550e-01
9.48000e+03 1.08850e-01
9.48500e+03 1.63660e-01
9.49000e+03 2.40390e-01
9.49500e+03 2.29310e-01
9.50000e+03 2.12550e-01
9.50500e+03 3.02760e-01
9.51000e+03 4.21830e-01
9.51500e+03 4.56410e-01
9.52000e+03 4.40880e-01
9.52500e+03 4.61780e-01
9.53000e+03 5.33000e-01
9.53500e+03 5.74470e-01
9.54000e+03 6.00460e-01
9.54500e+03 6.11240e-01
9.55000e+03 6.35960e-01
9.55500e+03 6.31480e-01
9.56000e+03 6.26510e-01
9.56500e+03 6.34320e-01
9.57000e+03 6.46660e-01
9.57500e+03 6.94260e-01
9.58000e+03 6.99180e-01
9.58500e+03 6.77560e-01
9.59000e+03 6.59120e-01
9.59500e+03 6.45720e-01
9.60000e+03 6.69520e-01
9.60500e+03 6.89700e-01
9.61000e+03 7.03710e-01
9.61500e+03 7.17630e-01
9.62000e+03 7.01510e-01
9.62500e+03 6.73030e-01
9.63000e+03 6.95500e-01
9.63500e+03 7.17300e-01
9.64000e+03 7.08280e-01
9.64500e+03 7.08240e-01
9.65000e+03 7.20050e-01
9.65500e+03 7.38580e-01
9.66000e+03 7.25390e-01
9.66500e+03 6.99190e-01
9.67000e+03 7.09900e-01
9.67500e+03 7.55180e-01
9.68000e+03 7.69240e-01
9.68500e+03 7.54450e-01
9.69000e+03 7.62160e-01
9.69500e+03 7.70440e-01
9.70000e+03 7.62580e-01
9.70500e+03 7.58470e-01
9.71000e+03 7.65210e-01
9.71500e+03 7.54690e-01
9.72000e+03 7.48390e-01
9.72500e+03 7.43530e-01
9.73000e+03 7.31770e-01
9.73500e+03 7.23250e-01
9.74000e+03 7.18610e-01
9.74500e+03 7.09390e-01
9.75000e+03 7.01210e-01
9.75500e+03 7.01640e-01
9.76000e+03 6.96880e-01
9.76500e+03 7.01360e-01
9.77000e+03 7.16560e-01
9.77500e+03 7.21580e-01
9.78000e+03 7.12560e-01
9.78500e+03 7.05890e-01
9.79000e+03 7.02520e-01
9.79500e+03 6.97750e-01
9.80000e+03 6.99100e-01
9.80500e+03 7.00780e-01
9.81000e+03 7.13380e-01
9.81500e+03 7.15050e-01
9.82000e+03 7.09660e-01
9.82500e+03 7.02850e-01
9.83000e+03 6.99080e-01
9.83500e+03 7.03960e-01
9.84000e+03 7.05620e-01
9.84500e+03 6.99150e-01
9.85000e+03 6.92290e-01
9.85500e+03 6.92640e-01
9.86000e+03 6.94430e-01
9.86500e+03 6.92200e-01
9.87000e+03 6.87410e-01
9.87500e+03 6.81690e-01
9.88000e+03 6.78510e-01
9.88500e+03 6.75790e-01
9.89000e+03 6.71700e-01
9.89500e+03 6.66810e-01
9.90000e+03 6.61720e-01
9.90500e+03 6.57970e-01
9.91000e+03 6.54470e-01
9.91500e+03 6.50050e-01
9.92000e+03 6.45550e-01
9.92500e+03 6.40470e-01
9.93000e+03 6.35080e-01
9.93500e+03 6.31750e-01
9.94000e+03 6.28670e-01
9.94500e+03 6.25070e-01
9.95000e+03 6.21280e-01
9.95500e+03 6.16430e-01
9.96000e+03 6.11760e-01
9.96500e+03 6.07090e-01
9.97000e+03 6.02300e-01
9.97500e+03 5.97720e-01
9.98000e+03 5.93090e-01
9.98500e+03 5.88510e-01
9.99000e+03 5.83870e-01
9.99500e+03 5.78580e-01
1.00000e+04 5.73520e-01
1.00050e+04 5.68800e-01
1.00100e+04 5.63620e-01
1.00150e+04 5.57340e-01
1.00200e+04 5.51010e-01
1.00250e+04 5.46240e-01
1.00300e+04 5.41790e-01
1.00350e+04 5.36310e-01
1.00400e+04 5.30300e-01
1.00450e+04 5.24660e-01
1.00500e+04 5.19120e-01
1.00550e+04 5.13790e-01
1.00600e+04 5.08650e-01
1.00650e+04 5.03410e-01
1.00700e+04 4.98170e-01
1.00750e+04 4.92260e-01
1.00800e+04 4.86260e-01
1.00850e+04 4.80310e-01
1.00900e+04 4.74040e-01
1.00950e+04 4.67490e-01
1.01000e+04 4.61840e-01
1.01050e+04 4.56450e-01
1.01100e+04 4.50730e-01
1.01150e+04 4.45300e-01
1.01200e+04 4.39730e-01
1.01250e+04 4.34520e-01
1.01300e+04 4.29390e-01
1.01350e+04 4.23670e-01
1.01400e+04 4.17870e-01
1.01450e+04 4.12030e-01
1.01500e+04 4.06320e-01
1.01550e+04 4.00860e-01
1.01600e+04 3.95390e-01
1.01650e+04 3.89970e-01
1.01700e+04 3.84390e-01
1.01750e+04 3.78580e-01
1.01800e+04 3.72880e-01
1.01850e+04 3.66950e-01
1.01900e+04 3.60700e-01
1.01950e+04 3.55070e-01
1.02000e+04 3.49890e-01
1.02050e+04 3.44540e-01
1.02100e+04 3.39070e-01
1.02150e+04 3.33500e-01
1.02200e+04 3.27890e-01
1.02250e+04 3.22350e-01
1.02300e+04 3.16690e-01
1.02350e+04 3.10960e-01
1.02400e+04 3.05300e-01
1.02450e+04 3.00040e-01
1.02500e+04 2.94710e-01
1.02550e+04 2.89540e-01
1.02600e+04 2.84420e-01
1.02650e+04 2.79320e-01
1.02700e+04 2.74120e-01
1.02750e+04 2.69390e-01
1.02800e+04 2.64830e-01
1.02850e+04 2.60270e-01
1.02900e+04 2.55630e-01
1.02950e+04 2.50580e-01
1.03000e+04 2.45510e-01
1.03050e+04 2.40380e-01
1.03100e+04 2.35240e-01
1.03150e+04 2.30190e-01
1.03200e+04 2.25180e-01
1.03250e+04 2.20160e-01
1.03300e+04 2.15110e-01
1.03350e+04 2.09350e-01
1.03400e+04 2.03640e-01
1.03450e+04 1.97900e-01
1.03500e+04 1.92160e-01
1.03550e+04 1.86160e-01
1.03600e+04 1.80150e-01
1.03650e+04 1.74140e-01
1.03700e+04 1.68150e-01
1.03750e+04 1.64710e-01
1.03800e+04 1.61300e-01
1.03850e+04 1.57860e-01
1.03900e+04 1.54410e-01
1.03950e+04 1.52140e-01
1.04000e+04 1.49860e-01
1.04050e+04 1.47590e-01
1.04100e+04 1.45310e-01
1.04150e+04 1.43260e-01
1.04200e+04 1.41200e-01
1.04250e+04 1.39150e-01
1.04300e+04 1.37110e-01
1.04350e+04 1.35020e-01
1.04400e+04 1.32950e-01
1.04450e+04 1.30860e-01
1.04500e+04 1.28770e-01
1.04550e+04 1.26730e-01
1.04600e+04 1.24710e-01
1.04650e+04 1.22680e-01
1.04700e+04 1.20670e-01
1.04750e+04 1.18810e-01
1.04800e+04 1.16950e-01
1.04850e+04 1.15070e-01
1.04900e+04 1.13160e-01
1.04950e+04 1.11040e-01
1.05000e+04 1.08950e-01
1.05050e+04 1.06880e-01
1.05100e+04 1.04790e-01
1.05150e+04 1.03260e-01
1.05200e+04 1.01720e-01
1.05250e+04 1.00180e-01
1.05300e+04 9.86500e-02
1.05350e+04 9.75400e-02
1.05400e+04 9.64200e-02
1.05450e+04 9.53100e-02
1.05500e+04 9.41800e-02
1.05550e+04 9.34200e-02
1.05600e+04 9.26600e-02
1.05650e+04 9.18900e-02
1.05700e+04 9.11300e-02
1.05750e+04 9.00500e-02
1.05800e+04 8.89700e-02
1.05850e+04 8.78900e-02
1.05900e+04 8.68300e-02
1.05950e+04 8.43200e-02
1.06000e+04 8.18300e-02
1.06050e+04 7.93400e-02
1.06100e+04 7.68400e-02
1.06150e+04 7.18400e-02
1.06200e+04 6.68300e-02
1.06250e+04 6.18300e-02
1.06300e+04 5.68400e-02
1.06350e+04 5.08300e-02
1.06400e+04 4.48200e-02
1.06450e+04 3.88300e-02
1.06500e+04 3.28400e-02
1.06550e+04 2.83400e-02
1.06600e+04 2.38600e-02
1.06650e+04 1.93700e-02
1.06700e+04 1.48800e-02
1.06750e+04 1.26000e-02
1.06800e+04 1.03300e-02
1.06850e+04 8.06000e-03
1.06900e+04 5.79000e-03
1.06950e+04 2.90000e-03
1.07000e+04 0.00000e+00
